Freq [GHz],Phi [deg],Theta [deg],dB(GainTotal) []
0.915,0,-180,-1.06546120164028
0.915,0,-179,-1.13224973791637
0.915,0,-178,-1.33144355432805
0.915,0,-177,-1.66544116524088
0.915,0,-176,-2.13839321381995
0.915,0,-175,-2.75646901627547
0.915,0,-174,-3.52828000376788
0.915,0,-173,-4.46551754701461
0.915,0,-172,-5.58389206777672
0.915,0,-171,-6.90449007471425
